Acq. time (s)=	10
Accumulations=	2
Range (cm-¹)=	400...1800
Windows=	1
Autofocus=	Off
AutoExposure=	Off
Spike filter=	Multiple accum.
Delay time (s)=	1
Binning=	1
Readout mode=	Signal
DeNoise=	Off
ICS correction=	Off
Dark correction=	Off
Inst. Process=	Off
Instrument=	XploRA
Detector=	Syncerity
Objective=	x100
Grating=	1800 gr/mm
Filter=	50%
Laser (nm)=	532 
Slit (µm)=	100 
Hole (µm)=	100 
Laser pol=	None
Raman pol=	None
Output=	Camera
StageXY=	Marzhauser
StageZ=	
X (µm)=	2396.5
Y (µm)=	-3374.7
Project=	RAM0282
Sample=	
Site=	
Title=	Rh-10-5-AgNp
Remark=	
Date=	03.10.2024 11:24
Acquired=	03.10.2024 11:24:56
201.953	1090
204.967	1084
207.98	1082.5
210.991	1069
214.001	1091
217.01	1059
220.017	1039
223.022	1060.5
226.026	1074.5
229.028	1052
232.029	1045
235.029	1070.5
238.027	1069.5
241.023	1044.5
244.019	1035
247.013	1034.5
250.005	1026
252.996	1015.5
255.985	1024.5
258.973	1023
261.959	1024
264.944	1021.5
267.927	992.5
270.909	993
273.889	999.5
276.869	1017
279.846	1005.5
282.822	992.5
285.797	974
288.77	998.5
291.742	1015.5
294.712	1001
297.681	996
300.648	971.5
303.614	978.5
306.579	1001
309.542	987.5
312.504	955.5
315.463	969.5
318.422	982.5
321.38	1002
324.335	993.5
327.289	982
330.242	986
333.194	986
336.143	1003.5
339.092	1011
342.039	1003
344.984	1008.5
347.929	997
350.872	977.5
353.813	983
356.753	951.5
359.691	944.5
362.628	929.5
365.564	917.5
368.498	908
371.431	920.5
374.362	913
377.292	877
380.221	919.5
383.148	892
386.073	899
388.997	924.5
391.92	898
394.841	901.5
397.762	912.5
400.68	923
403.597	950.5
406.512	936
409.427	952
412.34	977
415.251	959.5
418.16	977
421.07	969.5
423.977	949.5
426.882	932.5
429.786	919.5
432.689	902.5
435.591	886.5
438.491	857
441.39	864
444.286	846.5
447.182	838
450.077	833
452.969	826.5
455.861	838
458.752	829.5
461.64	835
464.528	857
467.413	877.5
470.298	899.5
473.181	925.5
476.063	926
478.943	953
481.822	989.5
484.699	997
487.576	1008.5
490.451	992
493.324	981.5
496.196	953
499.066	941.5
501.936	920
504.804	887.5
507.67	847.5
510.535	855
513.399	837
516.26	815.5
519.122	799
521.981	794
524.839	791
527.696	808
530.551	802.5
533.405	804.5
536.258	797.5
539.109	787.5
541.958	796.5
544.807	781.5
547.654	801.5
550.499	800.5
553.344	792.5
556.187	798.5
559.029	789.5
561.868	771
564.707	770.5
567.545	738.5
570.38	749.5
573.215	750.5
576.048	737
578.88	720
581.711	721
584.54	724
587.367	719
590.194	718
593.019	715.5
595.842	699.5
598.665	730.5
601.486	699
604.305	704.5
607.124	701
609.941	694
612.757	689
615.57	703
618.383	708.5
621.194	680.5
624.005	704.5
626.813	682.5
629.621	690
632.427	690
635.231	692
638.035	691
640.836	683.5
643.637	682
646.436	708.5
649.234	717.5
652.031	697
654.826	714.5
657.62	698
660.412	706
663.204	717
665.994	741
668.782	751
671.569	746.5
674.355	754.5
677.139	762.5
679.923	752.5
682.704	744
685.485	726
688.264	708.5
691.042	701.5
693.818	693.5
696.593	688
699.367	680.5
702.14	641
704.91	661.5
707.68	656
710.448	657.5
713.216	653.5
715.981	645.5
718.746	662
721.509	634
724.27	662
727.031	659.5
729.79	638.5
732.548	639
735.305	638
738.06	628.5
740.814	627
743.566	633
746.317	627
749.067	649.5
751.815	637.5
754.563	629.5
757.308	639.5
760.053	634.5
762.796	643
765.538	636.5
768.279	652.5
771.019	641
773.757	652
776.493	664.5
779.229	670.5
781.963	661
784.696	669.5
787.427	663
790.157	655
792.886	644
795.613	682.5
798.34	664.5
801.065	676
803.788	684
806.51	711.5
809.232	718
811.951	724.5
814.67	764
817.387	786
820.103	798.5
822.818	802
825.53	812.5
828.242	805
830.953	813.5
833.662	823.5
836.371	837
839.077	859
841.782	889
844.487	914
847.19	940
849.891	973.5
852.591	972
855.29	967.5
857.988	958.5
860.685	945
863.379	899.5
866.073	890
868.766	833
871.457	790.5
874.147	758
876.836	720
879.523	696
882.21	661
884.894	638.5
887.578	647.5
890.26	649.5
892.941	620
895.621	629
898.3	662
900.976	652.5
903.653	674
906.327	681.5
909.001	696
911.672	683
914.344	733
917.013	716
919.681	734
922.348	717
925.014	735.5
927.678	705
930.341	680.5
933.004	690
935.664	668.5
938.323	651
940.982	622
943.638	601
946.294	584.5
948.948	587.5
951.601	583.5
954.253	599.5
956.904	590.5
959.554	588
962.201	599
964.848	602.5
967.493	603
970.138	612.5
972.78	633
975.423	629.5
978.063	642.5
980.703	642.5
983.34	630
985.977	628
988.612	625
991.246	601
993.879	587
996.511	566.5
999.142	569
1001.77	575
1004.4	544
1007.03	552.5
1009.65	558.5
1012.28	542.5
1014.9	555
1017.52	562
1020.14	578.5
1022.76	583
1025.38	611
1027.99	620
1030.61	636
1033.22	676.5
1035.84	701
1038.45	716.5
1041.06	741.5
1043.67	763.5
1046.28	790
1048.89	805
1051.49	785
1054.1	805.5
1056.7	802
1059.3	804
1061.9	802
1064.5	799.5
1067.1	785
1069.7	768
1072.29	752.5
1074.89	744.5
1077.48	738.5
1080.07	715
1082.66	719.5
1085.25	683.5
1087.84	687.5
1090.43	705.5
1093.01	687
1095.6	682
1098.18	673
1100.76	696
1103.35	676
1105.93	687.5
1108.5	669.5
1111.08	665.5
1113.66	668
1116.23	646.5
1118.81	621
1121.38	614.5
1123.95	589
1126.52	579.5
1129.09	563
1131.66	530
1134.22	508
1136.79	507.5
1139.35	510.5
1141.92	481
1144.48	459
1147.04	482.5
1149.6	470.5
1152.16	473
1154.71	473.5
1157.27	466.5
1159.82	468.5
1162.38	465.5
1164.93	464.48
1167.48	453.959
1170.03	465.939
1172.58	464.918
1175.13	475.898
1177.67	475.877
1180.22	470.357
1182.76	467.336
1185.3	465.316
1187.84	470.795
1190.38	468.275
1192.92	493.754
1195.46	493.734
1198	481.213
1200.53	496.193
1203.07	479.672
1205.6	507.652
1208.13	513.631
1210.66	506.611
1213.19	523.59
1215.72	508.07
1218.25	512.049
1220.77	528.529
1223.3	524.008
1225.82	542.988
1228.34	539.967
1230.86	543.447
1233.38	534.426
1235.9	551.906
1238.42	542.885
1240.94	560.865
1243.45	569.344
1245.97	579.324
1248.48	586.803
1250.99	567.783
1253.5	564.762
1256.01	564.742
1258.52	573.721
1261.02	558.201
1263.53	569.68
1266.04	561.16
1268.54	560.139
1271.04	555.119
1273.54	536.098
1276.04	536.078
1278.54	532.057
1281.04	531.037
1283.53	530.516
1286.03	526.996
1288.52	514.475
1291.02	521.455
1293.51	513.934
1296	512.414
1298.49	508.393
1300.98	519.873
1303.46	503.352
1305.95	502.332
1308.43	501.811
1310.92	491.791
1313.4	503.771
1315.88	501.75
1318.36	497.23
1320.84	504.709
1323.32	501.189
1325.79	506.168
1328.27	494.648
1330.74	490.127
1333.22	474.607
1335.69	481.586
1338.16	485.066
1340.63	489.545
1343.1	480.025
1345.57	498.504
1348.03	471.984
1350.5	465.463
1352.96	461.443
1355.42	475.422
1357.88	467.402
1360.34	463.381
1362.8	446.361
1365.26	460.34
1367.72	451.82
1370.18	460.799
1372.63	462.279
1375.08	460.758
1377.54	452.738
1379.99	447.717
1382.44	452.697
1384.89	449.676
1387.33	450.656
1389.78	445.635
1392.23	433.615
1394.67	440.094
1397.11	422.074
1399.56	429.553
1402	430.533
1404.44	423.512
1406.88	424.492
1409.31	417.471
1411.75	419.951
1414.19	430.43
1416.62	411.41
1419.05	412.889
1421.48	400.869
1423.92	419.848
1426.35	407.328
1428.77	407.807
1431.2	406.287
1433.63	410.266
1436.05	411.246
1438.48	413.725
1440.9	407.205
1443.32	428.184
1445.74	411.164
1448.16	451.143
1450.58	454.623
1453	475.603
1455.41	517.082
1457.83	517.062
1460.24	534.541
1462.65	539.021
1465.07	538
1467.48	524.48
1469.89	531.459
1472.3	514.439
1474.7	489.418
1477.11	476.898
1479.51	453.377
1481.92	426.857
1484.32	390.836
1486.72	387.816
1489.12	356.795
1491.52	358.775
1493.92	334.754
1496.32	332.234
1498.71	323.713
1501.11	330.693
1503.5	321.172
1505.89	307.652
1508.29	316.631
1510.68	319.611
1513.07	305.09
1515.45	307.07
1517.84	303.549
1520.23	300.529
1522.61	288.008
1525	303.488
1527.38	300.467
1529.76	300.447
1532.14	294.426
1534.52	302.906
1536.9	282.885
1539.28	304.865
1541.65	291.344
1544.03	281.324
1546.4	297.303
1548.77	281.783
1551.15	279.262
1553.52	294.742
1555.89	277.721
1558.25	282.201
1560.62	274.68
1562.99	285.16
1565.35	283.139
1567.72	288.119
1570.08	289.598
1572.44	282.578
1574.8	287.057
1577.16	282.037
1579.52	281.516
1581.88	280.496
1584.23	269.475
1586.59	270.455
1588.94	280.934
1591.3	273.414
1593.65	273.893
1596	274.373
1598.35	254.853
1600.7	275.332
1603.05	256.312
1605.39	263.291
1607.74	259.271
1610.08	254.25
1612.43	259.73
1614.77	255.709
1617.11	259.189
1619.45	255.668
1621.79	256.148
1624.13	254.627
1626.46	255.107
1628.8	254.086
1631.14	262.066
1633.47	256.045
1635.8	258.525
1638.13	253.004
1640.46	240.984
1642.79	255.463
1645.12	245.943
1647.45	245.922
1649.77	237.402
1652.1	248.881
1654.42	237.861
1656.75	249.84
1659.07	248.82
1661.39	245.799
1663.71	250.779
1666.03	251.258
1668.35	243.238
1670.66	242.717
1672.98	236.197
1675.29	235.176
1677.61	235.156
1679.92	249.135
1682.23	236.615
1684.54	227.594
1686.85	235.074
1689.16	235.053
1691.46	229.533
1693.77	233.512
1696.07	228.992
1698.38	228.971
1700.68	228.451
1702.98	221.43
1705.28	218.91
1707.58	226.389
1709.88	220.869
1712.18	220.848
1714.48	213.828
1716.77	220.307
1719.06	207.787
1721.36	214.266
1723.65	205.746
1725.94	217.225
1728.23	211.205
1730.52	215.684
1732.81	212.164
1735.1	205.644
1737.38	219.123
1739.67	205.103
1741.95	213.582
1744.23	215.062
1746.51	200.041
1748.79	194.521
1751.07	204.5
1753.35	200.48
1755.63	201.959
1757.91	211.939
1760.18	210.918
1762.46	201.398
1764.73	198.377
1767	202.857
1769.27	202.336
1771.54	198.316
1773.81	200.795
1776.08	192.275
1778.35	177.754
1780.61	195.734
1782.88	193.713
1785.14	200.193
1787.41	193.672
1789.67	189.152
1791.93	194.131
1794.19	191.611
1796.45	195.09
1798.71	186.57
1800.96	191.049
1803.22	184.529
1805.47	186.508
1807.73	184.488
1809.98	183.967
1812.23	188.447
1814.48	176.426
1816.73	184.406
1818.98	189.385
1821.23	190.365
1823.47	183.844
1825.72	185.824
1827.96	183.803
1830.21	184.283
1832.45	180.762
1834.69	182.742
1836.93	184.721
1839.17	170.701
1841.41	173.68
1843.64	177.66
1845.88	173.139
1848.12	175.119
1850.35	173.098
1852.58	175.578
1854.82	174.557
1857.05	171.037
1859.28	167.516
1861.51	175.996
1863.73	174.975
1865.96	174.955
1868.19	162.935
1870.41	167.414
1872.64	168.394
1874.86	170.373
1877.08	161.853
1879.3	167.832
1881.52	163.312
1883.74	161.791
1885.96	168.771
1888.18	174.75
1890.39	171.73
1892.61	160.209
1894.82	166.689
1897.03	158.168
1899.24	166.148
1901.46	176.627
1903.66	169.107
1905.87	158.586
1908.08	160.566
1910.29	170.545
1912.49	161.025
1914.7	150.504
1916.9	154.484
1919.11	158.463
1921.31	167.443
1923.51	153.922
1925.71	163.402
1927.91	156.881
1930.1	151.861
1932.3	159.84
1934.5	164.82
1936.69	156.799
1938.89	168.279
1941.08	157.258
1943.27	146.738
1945.46	153.717
1947.65	158.197
1949.84	161.676
1952.03	154.156
1954.21	152.635
1956.4	153.115
1958.59	155.094
1960.77	157.074
1962.95	149.053
1965.13	147.033
1967.31	159.512
1969.49	148.992
1971.67	157.971
1973.85	154.451
1976.03	156.43
1978.2	147.91
1980.38	149.389
1982.55	149.869
1984.73	153.348
1986.9	148.828
1989.07	158.307
1991.24	151.287
1993.41	150.267
1995.58	149.746
1997.74	152.226
1999.91	147.705
2002.07	138.185
2004.24	146.164
2006.4	144.144
2008.56	153.123
2010.72	145.603
2012.88	138.582
2015.04	144.562
2017.2	145.041
2019.36	146.021
2021.52	150
2023.67	145.98
2025.83	147.959
2027.98	143.439
2030.13	143.418
2032.28	153.398
2034.43	155.377
2036.58	146.357
2038.73	146.836
2040.88	146.316
2043.03	146.295
2045.17	152.775
2047.32	140.254
2049.46	144.234
2051.6	142.213
2053.74	142.693
2055.88	136.172
2058.02	148.652
2060.16	141.631
2062.3	143.111
2064.44	146.59
2066.57	126.57
2068.71	138.049
2070.84	148.029
2072.98	141.508
2075.11	140.988
2077.24	143.967
2079.37	150.447
2081.5	152.926
2083.63	139.906
2085.75	142.885
2087.88	131.365
2090	137.344
2092.13	120.824
2094.25	134.803
2096.37	138.283
2098.5	141.262
2100.62	137.242
2102.74	130.221
2104.85	131.701
2106.97	139.18
2109.09	132.66
2111.2	134.639
2113.32	132.619
2115.43	136.098
2117.54	124.078
2119.66	126.558
2121.77	127.537
2123.88	130.017
2125.99	121.496
2128.09	118.476
2130.2	120.455
2132.31	118.435
2134.41	119.414
2136.52	126.394
2138.62	131.873
2140.72	134.353
2142.83	135.332
2144.93	147.312
2147.03	143.291
2149.12	152.771
2151.22	145.75
2153.32	147.23
2155.41	140.209
2157.51	136.189
2159.6	133.168
2161.7	128.648
2163.79	122.627
2165.88	122.107
2167.97	123.586
2170.06	120.066
2172.15	118.045
2174.23	125.525
2176.32	118.504
2178.41	121.484
2180.49	113.963
2182.57	123.943
2184.66	132.922
2186.74	129.902
2188.82	131.881
2190.9	134.361
2192.98	128.84
2195.05	139.82
2197.13	144.799
2199.21	128.279
2201.28	127.758
2203.36	138.738
2205.43	138.217
2207.5	140.197
2209.57	142.176
2211.64	150.156
2213.71	147.635
2215.78	148.115
2217.85	150.594
2219.92	146.074
2221.98	149.553
2224.05	155.533
2226.11	160.512
2228.17	163.492
2230.24	170.471
2232.3	167.451
2234.36	178.93
2236.42	183.41
2238.48	180.389
2240.53	190.869
2242.59	186.849
2244.65	194.828
2246.7	178.308
2248.75	172.787
2250.81	166.267
2252.86	140.246
2254.91	146.726
2256.96	147.705
2259.01	133.185
2261.06	126.164
2263.1	119.144
2265.15	115.623
2267.2	123.103
2269.24	119.582
2271.29	119.562
2273.33	121.041
2275.37	127.521
2277.41	132.5
2279.45	137.98
2281.49	151.459
2283.53	158.939
2285.57	156.918
2287.6	155.898
2289.64	179.377
2291.67	171.857
2293.71	166.836
2295.74	161.816
2297.77	165.795
2299.8	163.275
2301.83	166.254
2303.86	171.234
2305.89	172.713
2307.92	174.693
2309.94	165.672
2311.97	164.652
2313.99	167.631
2316.02	159.611
2318.04	160.09
2320.06	147.57
2322.08	145.549
2324.1	152.529
2326.12	139.508
2328.14	145.488
2330.16	137.467
2332.17	140.947
2334.19	132.926
2336.2	131.406
2338.22	125.885
2340.23	120.865
2342.24	116.844
2344.25	114.824
2346.26	106.303
2348.27	101.783
2350.28	103.262
2352.29	105.242
2354.29	96.2215
2356.3	98.201
2358.3	89.6805
2360.31	83.66
2362.31	90.6395
2364.31	84.619
2366.31	91.0985
2368.31	91.078
2370.31	93.0575
2372.31	89.909
2374.31	93.5943
2376.31	93.2842
2378.3	92.0325
2380.3	85.1526
2382.29	83.591
2384.28	76.5234
2386.28	78.5199
2388.27	80.679
2390.26	76.251
2392.25	80.0351
2394.24	76.757
2396.22	73.542
2398.21	86.6338
2400.2	76.5389
2402.18	76.07
2404.17	77.2055
2406.15	72.1375
2408.13	78.5676
2410.11	64.8731
2412.1	69.2045
2414.08	68.467
2416.05	65.8472
2418.03	68.1354
2420.01	64.4837
2421.99	69.6281
2423.96	64.6398
2425.94	68.295
2427.91	63.4819
2429.88	64.3325
2431.85	60.4314
2433.83	61.8952
2435.8	65.8845
2437.77	63.6541
2439.73	64.6652
2441.7	67.2698
2443.67	60.6095
2445.63	62.6763
2447.6	64.2136
2449.56	59.7173
2451.53	60.8819
2453.49	62.9579
2455.45	62.5956
2457.41	61.4253
2459.37	59.1537
2461.33	63.5211
2463.29	60.1975
2465.24	56.3115
2467.2	59.6733
2469.16	59.0783
2471.11	54.8721
2473.06	58.6821
2475.02	59.8847
2476.97	57.623
2478.92	61.1735
2480.87	56.4547
2482.82	58.4049
2484.77	59.6727
2486.71	56.7477
2488.66	57.8046
2490.61	56.4167
2492.55	52.8787
2494.5	56.0065
2496.44	57.644
2498.38	57.0985
2500.32	55.8714
2502.26	59.4327
2504.2	56.0406
2506.14	57.9981
2508.08	55.3716
2510.02	53.6252
2511.95	57.2134
2513.89	51.0424
2515.82	54.7446
2517.76	55.7358
2519.69	56.9161
2521.62	51.8563
2523.55	53.4163
2525.48	53.3944
2527.41	54.2521
2529.34	55.9679
2531.27	48.1502
2533.2	52.8384
2535.12	55.5579
2537.05	52.5355
2538.97	51.8615
2540.9	50.129
2542.82	55.8289
2544.74	51.5212
2546.66	50.6859
2548.58	50.6736
2550.5	47.7378
2552.42	48.5333
2554.34	50.7284
2556.25	51.0852
2558.17	49.7924
2560.09	50.2524
2562	51.1032
2563.91	51.2783
2565.83	49.1367
2567.74	47.2577
2569.65	49.7488
2571.56	49.7436
2572.22	49.0861
2574.15	48.0767
2576.07	49.5673
2578	51.0579
2579.92	47.5485
2581.84	49.0391
2583.77	51.0298
2585.69	42.5204
2587.61	55.511
2589.53	49.0016
2591.45	43.9922
2593.37	50.4828
2595.28	49.9734
2597.2	51.9641
2599.12	44.4547
2601.03	53.4453
2602.95	49.9359
2604.86	48.9265
2606.77	51.4171
2608.69	42.9077
2610.6	47.8984
2612.51	49.389
2614.42	41.3796
2616.33	44.8702
2618.24	43.8608
2620.15	46.3514
2622.05	48.842
2623.96	44.8327
2625.86	45.3233
2627.77	47.8139
2629.67	48.8045
2631.58	42.2951
2633.48	51.2857
2635.38	48.2763
2637.28	43.267
2639.18	47.7576
2641.08	42.7482
2642.98	43.7388
2644.88	42.7294
2646.77	43.72
2648.67	45.7106
2650.57	47.7012
2652.46	46.1919
2654.35	46.6825
2656.25	43.6731
2658.14	42.1637
2660.03	41.6543
2661.92	43.6449
2663.81	47.1355
2665.7	47.6262
2667.59	42.1168
2669.48	40.6074
2671.37	43.098
2673.25	45.5886
2675.14	45.5792
2677.02	43.0698
2678.91	45.5605
2680.79	41.5511
2682.67	45.0417
2684.55	47.5323
2686.44	45.0229
2688.32	47.0135
2690.2	40.5041
2692.07	47.9948
2693.95	44.4854
2695.83	41.976
2697.71	46.9666
2699.58	42.4572
2701.46	45.9478
2703.33	41.9384
2705.2	43.4291
2707.08	39.9197
2708.95	41.4103
2710.82	45.4009
2712.69	43.8915
2714.56	45.8821
2716.43	43.8727
2718.3	46.8633
2720.17	47.354
2722.03	39.8446
2723.9	47.3352
2725.76	43.8258
2727.63	44.3164
2729.49	43.307
2731.35	41.2976
2733.22	47.2883
2735.08	44.7789
2736.94	40.2695
2738.8	47.2601
2740.66	43.2507
2742.52	41.7413
2744.37	50.7319
2746.23	43.7226
2748.09	43.2132
2749.94	50.2038
2751.8	42.6944
2753.65	45.685
2755.51	44.6756
2757.36	44.1662
2759.21	44.6569
2761.06	37.6475
2762.91	42.1381
2764.76	42.6287
2766.61	45.1193
2768.46	41.6099
2770.3	43.1005
2772.15	41.0912
2774	38.0818
2775.84	45.0724
2777.69	41.063
2779.53	44.5536
2781.37	41.5442
2783.21	39.0348
2785.06	44.0255
2786.9	42.5161
2788.74	43.0067
2790.58	37.9973
2792.41	43.9879
2794.25	40.4785
2796.09	42.4691
2797.93	40.9598
2799.76	43.9504
2801.6	44.441
2803.43	40.9316
2805.26	47.4222
2807.1	44.4128
2808.93	44.4034
2810.76	36.3941
2812.59	48.8847
2814.42	42.8753
2816.25	45.3659
2818.08	44.8565
2819.9	43.8471
2821.73	44.3377
2823.56	43.3284
2825.38	48.819
2827.21	45.8096
2829.03	43.8002
2830.85	45.2908
2832.67	50.7814
2834.5	46.772
2836.32	49.7626
2838.14	46.7533
2839.96	56.2439
2841.78	51.7345
2843.59	51.2251
2845.41	55.7157
2847.23	50.2063
2849.04	55.6969
2850.86	55.1876
2852.67	55.6782
2854.49	62.6688
2856.3	61.6594
2858.11	61.65
2859.92	62.6406
2861.73	65.1312
2863.54	68.6219
2865.35	73.6125
2867.16	76.1031
2868.97	74.0937
2870.78	78.0843
2872.58	77.5749
2874.39	87.5655
2876.19	88.0562
2878	83.0468
2879.8	81.5374
2881.6	88.028
2883.4	90.5186
2885.21	86.0092
2887.01	79.9998
2888.81	88.9904
2890.61	83.4811
2892.4	87.4717
2894.2	86.4623
2896	79.4529
2897.79	77.4435
2899.59	83.9341
2901.38	72.9247
2903.18	74.4154
2904.97	79.406
2906.77	76.3966
2908.56	74.3872
2910.35	69.3778
2912.14	76.8684
2913.93	74.3591
2915.72	70.8497
2917.51	71.3403
2919.29	77.8309
2921.08	69.3215
2922.87	74.3121
2924.65	73.8027
2926.44	76.7933
2928.22	74.784
2930	76.2746
2931.79	77.7652
2933.57	77.2558
2935.35	75.7464
2937.13	78.237
2938.91	76.2276
2940.69	70.2183
2942.47	72.7089
2944.25	66.1995
2946.02	64.6901
2947.8	65.6807
2949.57	66.6713
2951.35	70.1619
2953.12	69.6526
2954.9	59.1432
2956.67	62.6338
2958.44	63.6244
2960.21	55.115
2961.98	61.1056
2963.75	57.5962
2965.52	52.0869
2967.29	51.0775
2969.06	50.0681
2970.83	45.5587
2972.59	42.5493
2974.36	44.0399
2976.12	42.5305
2977.89	40.5211
2979.65	47.5118
2981.41	39.0024
2983.18	36.993
2984.94	37.4836
2986.7	33.4742
2988.46	31.9648
2990.22	33.9554
2991.98	32.4461
2993.73	31.4367
2995.49	29.9273
2997.25	28.4179
2999	26.4085
3000.76	27.8991
3002.51	26.8897
3004.27	26.8804
3006.02	25.871
3007.77	25.8616
3009.52	25.8522
3011.28	23.8428
3013.03	27.8334
3014.77	22.824
3016.52	22.8147
3018.27	28.8053
3020.02	25.7959
3021.77	25.7865
3023.51	22.7771
3025.26	25.7677
3027	25.7583
3028.75	22.749
3030.49	21.7396
3032.23	24.2302
3033.97	23.7208
3035.71	23.2114
3037.46	20.702
3039.2	22.6926
3040.93	25.1833
3042.67	25.6739
3044.41	23.1645
3046.15	22.6551
3047.88	26.6457
3049.62	27.1363
3051.35	24.6269
3053.09	23.1175
3054.82	22.6082
3056.56	19.5988
3058.29	20.5894
3060.02	23.08
3061.75	21.5706
3063.48	16.5612
3065.21	20.0518
3066.94	22.0425
3068.67	21.5331
3070.39	22.5237
3072.12	20.0143
3073.85	20.0049
3075.57	19.4955
3077.3	20.4861
3079.02	23.9768
3080.74	20.4674
3082.47	24.458
3084.19	23.4486
3085.91	26.4392
3087.63	17.9298
3089.35	22.4204
3091.07	20.9111
3092.79	19.4017
3094.51	20.8923
3096.22	18.8829
3097.94	22.3735
3099.65	25.3641
3101.37	21.3547
3103.08	20.8454
3104.8	20.336
3106.51	23.3266
3108.22	17.8172
3109.93	19.3078
3111.65	18.7984
3113.36	21.789
3115.07	22.7797
3116.77	24.2703
3118.48	24.2609
3120.19	21.7515
3121.9	20.7421
3123.6	20.7327
3125.31	18.7233
3127.01	24.214
3128.72	18.2046
3130.42	24.1952
3132.12	22.6858
3133.83	21.6764
3135.53	19.167
3137.23	22.1576
3138.93	21.6483
3140.63	20.1389
3142.33	19.6295
3144.03	20.1201
3145.72	20.6107
3147.42	21.6013
3149.12	23.0919
3150.81	17.0825
3152.51	19.5732
3154.2	19.5638
3155.89	23.0544
3157.59	18.045
3159.28	19.0356
3160.97	21.0262
3162.66	23.0168
3164.35	19.5075
3166.04	18.4981
3167.73	18.4887
3169.42	19.4793
3171.11	19.4699
3172.79	18.4605
3174.48	16.4511
3176.16	20.4418
3177.85	18.9324
3179.53	15.923
3181.22	20.9136
3182.9	20.4042
3184.58	17.3948
3186.26	23.3854
3187.94	19.8761
3189.62	21.3667
3191.3	21.3573
3192.98	19.8479
3194.66	21.8385
3196.34	21.8291
3198.01	25.3197
3199.69	20.8104
3201.36	18.801
3203.04	21.2916
3204.71	22.7822
3206.39	20.2728
3208.06	21.2634
3209.73	20.254
3211.4	20.7446
3213.07	22.2353
3214.74	18.2259
3216.41	21.7165
3218.08	20.2071
3219.75	16.6977
3221.42	22.6883
3223.08	22.6789
3224.75	21.6696
3226.42	19.6602
3228.08	21.6508
3229.74	26.1414
3231.41	24.132
3233.07	21.6226
3234.73	20.1132
3236.39	22.1039
3238.06	25.0945
3239.72	21.5851
3241.37	19.5757
3243.03	23.0663
3244.69	20.0569
3246.35	21.0475
3248.01	22.0382
3249.66	20.0288
3251.32	21.0194
3252.97	21.51
3254.63	19.5006
3256.28	20.4912
3257.93	19.4818
3259.59	18.4725
3261.24	17.9631
3262.89	24.9537
3264.54	20.4443
3266.19	20.9349
3267.84	21.4255
3269.49	23.4161
3271.14	22.9068
3272.78	19.3974
3274.43	19.888
3276.07	18.8786
3277.72	17.8692
3279.36	19.8598
3281.01	21.3504
3282.65	22.341
3284.29	20.3317
3285.94	21.8223
3287.58	22.8129
3289.22	20.3035
3290.86	23.2941
3292.5	19.7847
3294.14	19.2753
3295.77	18.266
3297.41	20.7566
3299.05	20.2472
3300.68	22.2378
3302.32	17.2284
3303.95	19.719
3305.59	17.2096
3307.22	23.2003
3308.85	21.1909
3310.49	19.1815
3312.12	22.1721
3313.75	19.6627
3315.38	20.6533
3317.01	20.1439
3318.64	21.1346
3320.27	20.6252
3321.89	17.6158
3323.52	20.1064
3325.15	21.097
3326.77	19.0876
3328.4	20.5782
3330.02	19.0689
3331.65	20.0595
3333.27	16.0501
3334.89	23.0407
3336.51	22.0313
3338.14	18.5219
3339.76	19.5125
3341.38	16.0032
3343	18.9938
3344.61	21.9844
3346.23	21.975
3347.85	19.9656
3349.47	17.9562
3351.08	17.9468
3352.7	22.9375
3354.31	14.9281
3355.93	20.9187
3357.54	18.4093
3359.15	16.8999
3360.77	17.8905
3362.38	15.8811
3363.99	17.3717
3365.6	16.3624
3367.21	19.853
3368.82	19.8436
3370.43	20.3342
3372.04	16.3248
3373.64	20.8154
3375.25	20.806
3376.86	19.7967
3378.46	16.7873
3380.07	19.2779
3381.67	17.2685
3383.27	18.2591
3384.88	19.2497
3386.48	18.2403
3388.08	22.231
3389.68	17.2216
3391.28	18.2122
3392.88	19.7028
3394.48	16.6934
3396.08	17.684
3397.68	19.1746
3399.27	21.6653
3400.87	20.6559
3402.47	14.1465
3404.06	16.6371
3405.66	20.1277
3407.25	17.1183
3408.84	16.6089
3410.44	19.5996
3412.03	17.0902
3413.62	17.5808
3415.21	18.0714
3416.8	15.562
3418.39	17.0526
3419.98	17.5432
3421.57	17.5339
3423.16	18.0245
3424.74	20.0151
3426.33	15.0057
3427.92	16.4963
3429.5	16.9869
3431.09	19.4775
3432.67	17.4682
3434.25	20.9588
3435.84	17.4494
3437.42	17.44
3439	19.4306
3440.58	19.9212
3442.16	14.9118
3443.74	16.9025
3445.32	18.3931
3446.9	16.3837
3448.48	14.8743
3450.05	18.3649
3451.63	14.3555
3453.21	19.3461
3454.78	20.3367
3456.36	15.3274
3457.93	18.318
3459.5	14.3086
3461.08	16.2992
3462.65	18.2898
3464.22	14.2804
3465.79	18.771
3467.36	14.2617
3468.93	17.7523
3470.5	17.7429
3472.07	14.2335
3473.64	20.2241
3475.2	14.2147
3476.77	18.2053
3478.34	15.196
3479.9	17.1866
3481.47	15.1772
3483.03	17.1678
3484.59	17.6584
3486.16	15.649
3487.72	18.1396
3489.28	15.1303
3490.84	16.1209
3492.4	15.6115
3493.96	17.1021
3495.52	19.0927
3497.08	14.0833
3498.64	14.5739
